# NAME           	C1M395
# WAVELENGTH_UNIT	nm
# DETECTOR       	photon
# COMPNAME       	C1M395
#
## WAVELENGTH	None	nm
## THROUGHPUT	None	filter throughput definition
#
WAVELENGTH,THROUGHPUT
3.810000000000000000e+02,0.000000000000000000e+00
3.815000000000000000e+02,0.000000000000000000e+00
3.820000000000000000e+02,0.000000000000000000e+00
3.825000000000000000e+02,0.000000000000000000e+00
3.830000000000000000e+02,0.000000000000000000e+00
3.835000000000000000e+02,0.000000000000000000e+00
3.840000000000000000e+02,0.000000000000000000e+00
3.845000000000000000e+02,1.399999999999999986e-03
3.850000000000000000e+02,5.700000000000000205e-03
3.855000000000000000e+02,1.420000000000000082e-02
3.860000000000000000e+02,2.850000000000000103e-02
3.865000000000000000e+02,4.979999999999999705e-02
3.870000000000000000e+02,7.969999999999999307e-02
3.875000000000000000e+02,1.195999999999999980e-01
3.880000000000000000e+02,1.708999999999999964e-01
3.885000000000000000e+02,2.321000000000000008e-01
3.890000000000000000e+02,3.019000000000000017e-01
3.895000000000000000e+02,3.774000000000000132e-01
3.900000000000000000e+02,4.556999999999999940e-01
3.905000000000000000e+02,5.340000000000000302e-01
3.910000000000000000e+02,6.095000000000000417e-01
3.915000000000000000e+02,6.793000000000000149e-01
3.920000000000000000e+02,7.405000000000000471e-01
3.925000000000000000e+02,7.917999999999999483e-01
3.930000000000000000e+02,8.316000000000000059e-01
3.935000000000000000e+02,8.616000000000000325e-01
3.940000000000000000e+02,8.829000000000000181e-01
3.945000000000000000e+02,8.957000000000000517e-01
3.950000000000000000e+02,9.000000000000000222e-01
3.955000000000000000e+02,8.957000000000000517e-01
3.960000000000000000e+02,8.829000000000000181e-01
3.965000000000000000e+02,8.616000000000000325e-01
3.970000000000000000e+02,8.316000000000000059e-01
3.975000000000000000e+02,7.917999999999999483e-01
3.980000000000000000e+02,7.405000000000000471e-01
3.985000000000000000e+02,6.793000000000000149e-01
3.990000000000000000e+02,6.095000000000000417e-01
3.995000000000000000e+02,5.340000000000000302e-01
4.000000000000000000e+02,4.556999999999999940e-01
4.005000000000000000e+02,3.774000000000000132e-01
4.010000000000000000e+02,3.019000000000000017e-01
4.015000000000000000e+02,2.321000000000000008e-01
4.020000000000000000e+02,1.708999999999999964e-01
4.025000000000000000e+02,1.195999999999999980e-01
4.030000000000000000e+02,7.969999999999999307e-02
4.035000000000000000e+02,4.979999999999999705e-02
4.040000000000000000e+02,2.850000000000000103e-02
4.045000000000000000e+02,1.420000000000000082e-02
4.050000000000000000e+02,5.700000000000000205e-03
4.055000000000000000e+02,1.399999999999999986e-03
4.060000000000000000e+02,0.000000000000000000e+00
4.065000000000000000e+02,0.000000000000000000e+00
4.070000000000000000e+02,0.000000000000000000e+00
4.075000000000000000e+02,0.000000000000000000e+00
4.080000000000000000e+02,0.000000000000000000e+00
4.085000000000000000e+02,0.000000000000000000e+00
4.090000000000000000e+02,0.000000000000000000e+00
